#lambda/nm	DC	C1
208.295	548	548.2
208.67	482.6	489
209.045	454.6	453
209.419	449.2	443.6
209.794	591.4	591
210.169	590.2	583.2
210.544	704.2	701.2
210.919	621.4	623.8
211.295	621	614
211.67	623.6	622.8
212.045	624.8	609.8
212.421	608.4	609.8
212.796	647.4	646.8
213.172	612	619.6
213.547	613	613.8
213.923	622.2	617.4
214.299	609.8	613
214.675	624.8	616.6
215.051	629.6	633.4
215.427	636	636.8
215.803	639.2	638.2
216.179	630	629.4
216.555	626.4	622.6
216.932	646	645.2
217.308	647	638.2
217.684	630.2	637
218.061	642.2	638.4
218.438	648.4	652.4
218.814	643.8	645
219.191	667	650.4
219.568	644.8	641.8
219.945	653.2	651
220.322	656.2	647.6
220.699	664.4	654.6
221.076	661.4	658.2
221.453	663	662.2
221.83	651.4	645.8
222.208	662.4	654.8
222.585	660.6	649.6
222.962	666.8	659
223.34	664.2	659.4
223.717	652	659.6
224.095	664.6	655.4
224.473	673.4	656.2
224.851	655	664.2
225.229	670.2	658
225.607	684	676.4
225.985	660	662.6
226.363	677.2	670.2
226.741	683.6	674.6
227.119	674.2	673
227.497	688	690.6
227.876	666.6	666
228.254	681.2	688
228.633	691.8	696.8
229.011	687	688.4
229.39	697.6	692.4
229.769	697.4	691.8
230.148	695.2	696.8
230.527	712.8	714.6
230.905	704.6	702.4
231.284	703.2	695.2
231.664	713.2	692.8
232.043	709.6	716.6
232.422	717.2	716.2
232.801	702	715.6
233.181	719.2	722.4
233.56	721.2	719
233.94	728.8	723.4
234.319	720.2	721.6
234.699	731.6	736
235.079	763.6	774
235.458	763.2	774
235.838	760.6	754.8
236.218	749.4	746.4
236.598	742.4	740
236.978	745.8	747
237.358	750.8	753.4
237.738	755.6	749
238.119	768.4	770.6
238.499	758	754.4
238.88	763.8	773.2
239.26	782.8	784
239.641	772.6	766.6
240.021	784.6	779
240.402	786	777.6
240.783	786	773
241.163	782.4	790.6
241.544	799	797.8
241.925	796.4	789.8
242.306	801.8	808.2
242.687	796	791
243.069	793.8	789.4
243.45	803.4	797.8
243.831	773.6	784.6
244.212	781.2	774
244.594	809	802.6
244.975	781.6	776.2
245.357	771	771
245.739	750.2	760
246.12	763.6	757.4
246.502	758.6	759
246.884	740.8	737.2
247.266	735.2	729.8
247.648	735.8	729.6
248.03	741.8	753.8
248.412	731	726
248.794	729.8	722.6
249.176	704	701.6
249.559	712.2	714.6
249.941	699	690.2
250.323	692	680.6
250.706	677.4	682.8
251.089	679.8	681.2
251.471	679.2	685.8
251.854	674.4	669.2
252.237	670.4	674.8
252.62	683	662
253.002	659.4	660.8
253.385	662.2	653.4
253.769	662.8	655.6
254.152	644.6	648.4
254.535	656.2	652
254.918	637	629.2
255.301	633.8	642
255.685	636.6	632
256.068	625.6	625
256.452	647.6	653.2
256.835	638	631.4
257.219	628	629.4
257.603	634.2	646.2
257.986	614.4	622.8
258.37	628.4	623
258.754	615.6	612.8
259.138	624.8	625.8
259.522	633.8	622
259.906	618	622.6
260.29	619.2	619.4
260.675	615	622.2
261.059	621.4	616.8
261.443	616.8	618.2
261.828	622	617.8
262.212	630.4	625.6
262.597	606.8	603.8
262.981	613.8	618
263.366	626	624.8
263.751	613.4	624
264.136	611.4	610.8
264.521	615.2	613
264.906	618.2	619.8
265.291	633	631.8
265.676	617.4	620.8
266.061	626.4	623.4
266.446	638	631.8
266.831	612.8	624.4
267.217	632.8	637.8
267.602	619.4	617.6
267.987	624.2	622.6
268.373	619.4	619.4
268.759	627.6	626.4
269.144	622	625.6
269.53	619.2	621.2
269.916	618.8	627.6
270.302	619.2	609.6
270.688	632	617
271.074	626.6	623.2
271.46	630.6	633.4
271.846	646.4	636.4
272.232	619.2	623.4
272.618	611.4	616.2
273.004	618	621.8
273.391	633	625.6
273.777	638.2	635.6
274.164	631.2	620.6
274.55	637.4	631.2
274.937	629.2	619
275.324	623.4	616
275.71	626.4	620
276.097	629	628.2
276.484	614.4	617.8
276.871	613.6	621
277.258	621.2	627.8
277.645	617.6	609.6
278.032	617.4	615.4
278.419	611.8	615.8
278.807	618.8	623.4
279.194	617.4	614.6
279.581	608.6	621.4
279.969	620.2	623.6
280.356	617.6	621.8
280.744	624	615.6
281.131	644	642.2
281.519	627.2	624
281.907	619.2	611.4
282.295	622.8	616.4
282.682	636.6	628.6
283.07	629	616.2
283.458	630	629.4
283.846	632	632.2
284.235	628.4	623.6
284.623	622.2	631
285.011	616.6	617.2
285.399	628.4	621.2
285.788	621.4	627.2
286.176	615	609.4
286.565	633.8	629.8
286.953	618.2	616.4
287.342	617.8	616.6
287.731	612	612.6
288.119	610.4	610.6
288.508	620.6	615.6
288.897	623.8	615.8
289.286	621	608.8
289.675	624.8	619.8
290.064	628.6	629.2
290.453	616.4	622.2
290.821	617.2	624.4
291.21	628	636
291.599	626.6	624.2
291.989	615.2	626.2
292.378	628.4	623.6
292.768	636.8	636.4
293.157	621.6	622.8
293.547	621.2	623
293.936	621.6	626
294.326	620.8	612.6
294.716	621.6	614
295.106	623.6	612.4
295.496	627.4	622.2
295.886	627.2	624.6
296.276	619.6	613.8
296.666	621.6	613.4
297.056	623.8	618
297.446	617	613
297.836	631	631.2
298.227	615.6	616
298.617	621.4	624.4
299.008	632	627.8
299.398	623.8	621.4
299.789	618.6	612.8
300.179	620.6	630.6
300.57	632.4	634.6
300.961	619.2	617.8
301.352	621	617
301.742	628.6	632.6
302.133	625.2	624.4
302.524	621	619.2
302.915	628.6	618.8
303.307	615.8	610.4
303.698	629.2	631.4
304.089	627.8	628
304.48	625	628.2
304.872	623.2	621
305.263	611.8	629
305.655	605.8	616.2
306.046	623.6	623.6
306.438	627	623
306.829	613	613.8
307.221	629.8	627.2
307.613	632.6	624
308.005	636.6	628.2
308.397	624	632
308.789	633.4	637.4
309.181	634.2	651.8
309.573	634.2	638.6
309.965	630.6	634.2
310.357	613.4	616
310.749	628.2	637
311.142	615	626.2
311.534	618.4	617.6
311.926	635.4	625.8
312.319	634.8	631.2
312.711	620.6	620.6
313.104	632.6	633.2
313.497	616.8	629.6
313.889	652	653.8
314.282	635	635.8
314.675	639.4	636.4
315.068	620.2	623
315.461	626	629.6
315.854	643	651.2
316.247	630.4	628.6
316.64	628.8	618.6
317.033	624.4	616.6
317.405	631.8	633.2
317.798	627.4	620.2
318.192	623.8	630.4
318.585	621.8	612.4
318.979	629.6	621
319.372	617.8	613.6
319.766	617.8	621.8
320.16	623.4	633.6
320.553	632.8	630.8
320.947	632	637
321.341	622.6	620.6
321.735	620.8	623
322.129	609.4	609.6
322.523	644.4	639.4
322.917	612	619.4
323.311	631.6	635.2
323.705	620	622.6
324.099	618	620
324.494	629.4	637.2
324.888	635.6	628.6
325.282	622	614.2
325.677	629.4	630.8
326.071	619	624.6
326.466	623.4	633
326.861	622	620.6
327.255	629.2	628.4
327.65	627.8	626.6
328.045	621.4	634.2
328.44	626.2	628.4
328.835	624.6	616.8
329.23	617.2	611.2
329.625	645.6	641.6
330.02	613.6	614.4
330.415	635.6	635.4
330.81	615.6	620.4
331.206	626.2	624.4
331.601	617.4	621.4
331.996	621.2	632
332.37	630.6	640.2
332.766	617.6	613.8
333.161	639	636.6
333.557	622.8	615.4
333.953	614.4	619.6
334.348	868.8	871.2
334.744	627	623.8
335.14	615.6	611.4
335.536	616.8	627.2
335.932	627.4	637.4
336.328	615	623
336.724	623.8	631
337.12	620.6	617
337.516	626.6	620
337.913	618.2	625.8
338.309	638.4	633.2
338.705	626.2	624.2
339.102	632.6	634.6
339.498	615.4	626.2
339.895	641.8	629.6
340.291	619.2	619.6
340.688	624.6	626.6
341.085	617.8	626
341.481	624.8	615.2
341.878	621.4	623.8
342.275	635.2	635.8
342.672	620.4	617.6
343.069	614.4	615.8
343.466	615.4	613.6
343.842	630.6	634
344.239	620.6	620.2
344.636	615.2	627
345.033	617	614.4
345.431	614.4	616.6
345.828	624.2	619.6
346.225	619.8	614.6
346.623	637.6	625
347.02	627.8	625.6
347.418	642	631.2
347.816	641	637.4
348.213	613	615.4
348.611	629.6	617
349.009	618	622.4
349.407	631.2	622.6
349.805	614.8	610.2
350.203	616.8	614.8
350.601	629.2	625.2
350.999	616.2	615.2
351.397	655.6	658.2
351.795	621	622.4
352.193	630	627.8
352.57	625.8	622.8
352.969	630.6	627.4
353.367	618	609.8
353.766	620.8	607.8
354.164	616.8	618.4
354.563	625.2	624.2
354.961	614.6	613.8
355.36	617.8	617.4
355.759	621.4	626.8
356.158	617.2	614.2
356.557	611.4	616
356.956	614.2	615.4
357.355	611	610.2
357.754	621.8	621.8
358.153	622.4	629
358.552	641.8	640
358.951	615.6	616.8
359.35	630.4	631
359.75	611.8	619.2
360.149	613.2	615.2
360.527	606.2	621.8
360.926	620	611.2
361.326	622.2	620.6
361.726	625.4	624.8
362.125	615.4	622.8
362.525	625.2	632.4
362.925	617.8	619.6
363.325	623.2	614.8
363.724	625.2	620.6
364.124	612.2	620.2
364.524	623.6	617.6
364.924	621.6	618.2
365.324	630	629
365.725	601.4	606.8
366.125	620.6	627.6
366.525	624.4	616.4
366.904	616.8	617.8
367.304	606.8	610.6
367.705	631	633.2
368.105	639.2	638.2
368.506	627.2	619.4
368.906	623.8	622.6
369.307	619	621.2
369.708	618	627.6
370.108	614.4	612.2
370.509	631	633.2
370.91	607.6	623.4
371.311	621.8	625
371.712	625	619.2
372.113	626.4	619.4
372.514	614.8	611.2
372.894	625	624.4
373.295	608.4	617.4
373.696	636	627.6
374.097	623	630.8
374.499	649	646.8
374.9	622.2	628.8
375.301	620.4	617.4
375.703	627.4	629
376.105	617	616.2
376.506	619.2	619.2
376.908	626	628.4
377.309	622.6	628.6
377.711	630.4	618.2
378.113	616.4	617.2
378.493	621.2	620.6
378.895	618.8	618.6
379.297	628.2	627.2
379.699	607.8	611.6
380.102	620.4	629
380.504	628.4	614.4
380.906	622.2	623
381.308	649	646.8
381.71	627.2	610.8
382.113	628.8	634.8
382.515	621	624.2
382.918	625.2	622.6
383.299	625.6	616.4
383.701	634	626
384.104	623.2	632.8
384.507	611	612.6
384.909	618.4	620
385.312	617.4	613.8
385.715	616.2	618.8
386.118	616.8	626
386.521	616.8	618.8
386.924	638.2	639
387.327	627.6	628.4
387.709	624.4	619.8
388.112	613.4	619
388.515	614.8	619.4
388.918	629.6	623.2
389.322	635.2	637.6
389.725	618.2	628.4
390.129	643.4	656.6
390.532	634.2	629.6
390.936	631.6	620.6
391.339	619	622.2
391.743	619.6	631.8
392.125	631	620.8
392.529	644.6	642
392.933	640.6	631.6
393.337	629.2	626.4
393.74	625.4	627
394.144	627.2	627.6
394.548	626	622.4
394.953	622.6	630
395.357	629.2	641
395.761	629.6	625.8
396.144	628.4	628.2
396.548	635.8	630
396.952	633.6	638
397.357	642.8	623.2
397.761	619.8	627
398.166	628	640
398.57	628	630
398.975	619	621.4
399.379	647.6	638.4
399.763	674.6	679
400.168	640.4	640
400.572	640.2	625.2
400.977	631.4	633
401.382	655.8	654.6
401.787	645.4	640.4
402.192	653.6	650
402.597	654.2	646.8
403.002	637.2	629.4
403.386	652.6	655.8
403.791	670.8	655.6
404.197	639.8	645.2
404.602	657	657.2
405.007	654	658.4
405.413	655.8	665.2
405.818	669	678
406.224	669.6	669.4
406.608	670	672.6
407.014	674	671
407.42	695.2	694.6
407.825	686.2	684.4
408.231	700.4	698.8
408.637	705.2	696.4
409.043	715.6	726.8
409.449	711	714.6
409.834	720.6	724.6
410.24	745	739.2
410.646	748.8	749
411.052	769.4	762.8
411.458	779.2	779.6
411.865	793.2	795.2
412.271	804	810.4
412.677	821.6	815.2
413.062	834.2	830.2
413.469	844.4	843.2
413.875	890.4	888.8
414.282	904.8	912.4
414.689	914.2	921.8
415.095	943.2	941.8
415.502	966.8	961.2
415.888	983	984.8
416.294	1012.2	992.8
416.701	1078.4	1079.8
417.108	1080.2	1068.4
417.515	1128	1122.8
417.923	1161	1149.2
418.33	1202.6	1190.8
418.715	1227	1242.2
419.123	1277.6	1252.2
419.53	1312	1308
419.937	1353	1353
420.345	1418.2	1418.8
420.752	1456.2	1447.4
421.16	1523.8	1517.8
421.546	1566.4	1568.2
421.953	1643.8	1630.6
422.361	1670.2	1681.4
422.769	1760	1767.8
423.177	1820.6	1828.8
423.585	1917.2	1914.8
423.992	1990	1994
424.379	2062.2	2079.8
424.787	2152	2173.2
425.195	2257.8	2251.6
425.603	2331.8	2351
426.011	2472.4	2464.8
426.419	2567	2559.2
426.806	2673.8	2678.2
427.214	2799	2775.6
427.623	2933.2	2924.6
428.031	3098.4	3073.2
428.44	3202.4	3207.4
428.848	3357.2	3359
429.235	3533.2	3525.6
429.644	3685.6	3673.4
430.053	3835.6	3853
430.461	4036.4	4067
430.87	4259	4267.2
431.279	4421.2	4457
431.666	4621.2	4632
432.075	4842.6	4863.2
432.484	5089.2	5122
432.893	5322.8	5352
433.302	5544.8	5592
433.711	5838	5895.8
434.099	6080.8	6112
434.508	6347.2	6400.8
434.918	6618	6703.4
435.327	6941	7016.6
435.737	7238.4	7368.2
436.125	7608	7693
436.534	7922.8	7991.4
436.944	8261	8387
437.353	8624.2	8775.8
437.763	9030.8	9104
438.173	9408.6	9471.4
438.561	9792.8	9907.2
438.971	10199.6	10335.6
439.381	10605	10780.8
439.791	11100.6	11237.6
440.201	11496.8	11696.2
440.589	12001.4	12142.4
440.999	12544.4	12755.6
441.409	13118.6	13214.8
441.819	13589.8	13769.2
442.23	14233.6	14442.4
442.619	14883.6	15005.4
443.029	15500.8	15648.4
443.439	16168.4	16318.8
443.85	16934.2	17098.2
444.26	17657.6	17822
444.649	18400	18618.8
445.06	19264.6	19467.6
445.471	20156.6	20333.6
445.881	21083.2	21229.4
446.292	21942	22151
446.682	22981.2	23218.6
447.092	23959.8	24153.6
447.503	25092.6	25269.2
447.914	26076.2	26329.2
448.325	27241.2	27458
448.715	28336.2	28440.4
449.126	29381.8	29612.6
449.537	30488.8	30664.4
449.948	31566.8	31710
450.338	32669.4	32826.4
450.75	33644.4	33781.4
451.161	34543.4	34704
451.572	35525.6	35582
451.984	36300.8	36408.2
452.374	36931.2	37018.6
452.786	37521.6	37715
453.197	38001.4	38216.4
453.609	38412	38608.4
453.999	38646.6	38762.2
454.411	38754	38837.2
454.823	38706	38812.8
455.235	38482.6	38708.4
455.647	38357	38483.2
456.037	37976.4	38104.4
456.449	37413.2	37609.4
456.862	36878.4	36993.6
457.274	36182.6	36353.8
457.665	35428.6	35620.8
458.077	34675.6	34827.6
458.489	33738.2	34025.6
458.902	32870.2	33126.4
459.293	32028.4	32156.6
459.705	31114.4	31298.2
460.118	30155.8	30433.6
460.53	29332.4	29588.4
460.921	28412.8	28682.4
461.334	27597.2	27785.4
461.747	26829	27074.8
462.16	26125.6	26372.8
462.551	25472.2	25681
462.964	24719.4	25007
463.377	24184.4	24421.2
463.79	23724.6	23907
464.182	23190.8	23376.6
464.595	22743	22894.4
465.008	22326.2	22460.8
465.421	21850.6	22147
465.813	21498.6	21739.2
466.226	21119	21365.4
466.64	20809.6	21061.8
467.053	20554.2	20753.6
467.445	20221.8	20441.4
467.859	19862.6	20178.2
468.272	19556	19817.2
468.686	19296.4	19515.2
469.078	18985.8	19185.6
469.492	18536.8	18809.6
469.906	18305.4	18503.4
470.298	17982.2	18168.6
470.712	17581	17756.6
471.126	17255.8	17459
471.54	16853.8	17077
471.933	16496.4	16749.2
472.347	16119	16410.8
472.761	15770.4	16041.8
473.175	15365.4	15704.8
473.568	15064.4	15320
473.982	14669.6	14958.8
474.397	14410.4	14595
474.79	14046.6	14293.8
475.204	13759.6	14035.8
475.619	13427.2	13665.4
476.033	13166.4	13353.2
476.426	12896.4	13125.2
476.841	12635.4	12878.2
477.256	12449.6	12683
477.649	12173.8	12439.8
478.064	12050.8	12250.2
478.479	11855	12110.2
478.872	11730.4	11978.4
479.287	11599	11832.6
479.702	11443	11719.6
480.118	11407.2	11664.2
480.511	11300.2	11581.6
480.927	11289.2	11483.8
481.342	11183.8	11453
481.736	11180.4	11459.8
482.151	11152.4	11424.2
482.566	11194.2	11398.4
482.96	11173.4	11396.4
483.376	11228.6	11467.4
483.792	11284.6	11502.4
484.186	11318.8	11551.6
484.602	11268.8	11567.2
485.017	11387.2	11614
485.412	11429.8	11699.4
485.827	11463.4	11737.6
486.243	11567.2	11701.2
486.638	11639.4	11864.4
487.054	11711.6	11909
487.47	11793.6	12051
487.865	11793.2	12047.4
488.281	11935.2	12150.6
488.697	12020.4	12262.6
489.092	12202	12345.6
489.508	12245.8	12418.2
489.925	12399.2	12564.2
490.32	12502.6	12713.6
490.736	12567.8	12849.4
491.153	12784.6	12951.8
491.548	12879.4	13107.6
491.964	13079.6	13242
492.381	13227	13380.4
492.776	13410.6	13571.8
493.193	13537	13779
493.61	13770.8	13918
494.006	13946.4	14092.8
494.422	14155.6	14314.6
494.84	14320.8	14530.8
495.235	14540.4	14693.8
495.652	14747	14873.2
496.069	14948.2	15140.4
496.465	15219.2	15360.2
496.883	15465.4	15624.8
497.3	15685	15847.6
497.696	15964.6	16088.6
498.113	16171	16277.4
498.509	16371	16530.6
498.927	16620.4	16745.2
499.344	16881.6	16983.8
499.741	17108	17314.2
500.158	17352.8	17500.4
500.576	17616.2	17745.2
500.973	17897.2	18015.6
501.39	18066	18253.8
501.787	18337.2	18499
502.205	18642.4	18754.6
502.623	18835.6	18954.8
503.02	19037.6	19219.4
503.438	19317.4	19431.4
503.856	19578.6	19652.8
504.253	19832.8	19924.8
504.671	20022.4	20174
505.068	20276.6	20375.4
505.486	20465.8	20684.2
505.905	20775.2	20863
506.302	21011.6	21073.8
506.72	21184.4	21305.4
507.118	21420.4	21552.6
507.536	21699.2	21711.8
507.955	21889.6	22031.6
508.352	22134.2	22282.4
508.771	22307.2	22403.2
509.169	22517.6	22658.8
509.587	22718.6	22791.8
510.006	22981.6	23010.6
510.404	23190.6	23279.2
510.823	23417	23451.8
511.221	23540.2	23658.2
511.64	23781.6	23911.2
512.038	23988.4	24003
512.457	24179.4	24221.6
512.877	24311.2	24444
513.275	24552.2	24687.6
513.694	24757.4	24764.8
514.092	24963.4	24957.4
514.512	25144.6	25152
514.91	25348.4	25344.6
515.33	25484.8	25559
515.749	25611.6	25667
516.148	25872.2	25883
516.568	25964.8	26100.2
516.966	26214.4	26240.4
517.386	26332.6	26473.2
517.785	26523.4	26607.4
518.205	26723.4	26713
518.603	26871.6	26870.6
519.024	27057.4	27009
519.444	27150.4	27237.2
519.843	27379.6	27360
520.263	27513.4	27542.2
520.662	27726.4	27704.4
521.082	27750.8	27863.2
521.481	27946.6	27974
521.902	28086.2	28142.6
522.301	28205.2	28291
522.722	28409.4	28424.4
523.121	28564.6	28568
523.542	28636.4	28686
523.963	28780.6	28755.8
524.362	28896.6	28990.4
524.783	29074.2	29026.6
525.183	29153.4	29132.6
525.604	29296.6	29296.6
526.003	29394.6	29367.8
526.425	29490	29534.6
526.824	29621.6	29670.4
527.246	29739.2	29745.2
527.646	29843.6	29848.8
528.067	29841	29987.2
528.467	30099.6	30072.6
528.888	30138	30249
529.289	30339.8	30362.4
529.71	30408.4	30394
530.11	30531.8	30549.4
530.532	30569.8	30652
530.932	30764	30805.2
531.354	30884	30784.8
531.755	31043	31003.2
532.176	31072.2	31147.8
532.577	31268	31277.6
532.999	31341.6	31393.6
533.4	31521.4	31466.2
533.822	31718.4	31617.2
534.223	31751	31745.4
534.645	31946.8	31918.2
535.046	32063.8	32035
535.468	32158.2	32171.4
535.869	32455.8	32363.4
536.292	32482.2	32448
536.693	32669.4	32629.2
537.115	32688	32716.4
537.516	32883.6	32903.2
537.939	33088.8	32987.8
538.34	33188.2	33161.8
538.742	33270.4	33261
539.165	33428.4	33455.6
539.566	33566.6	33542.2
539.989	33749.4	33759
540.391	33870.4	33845.2
540.814	33967.2	33898.4
541.216	34115.4	34107.4
541.639	34154.6	34242.6
542.041	34391.2	34303.2
542.464	34480.2	34446
542.866	34656.4	34630.4
543.268	34784	34704.6
543.691	34801.8	34831.6
544.093	35009.8	34954.6
544.517	35083.6	35125.8
544.919	35165.6	35182
545.343	35376.2	35351
545.745	35418.2	35427.6
546.147	35613.8	35580.6
546.571	35702	35676.2
546.974	35799.8	35810
547.398	35951	35880.8
547.8	36040	36071
548.224	36074.8	36110.6
548.627	36267.8	36189.4
549.03	36391.8	36453
549.454	36577.8	36454.6
549.857	36622.2	36572.4
550.281	36764.4	36676
550.684	36814.6	36777
551.087	37025.2	36967.8
551.512	37119.2	37084
551.915	37270.8	37182
552.34	37336.6	37253.8
552.743	37454.4	37373.6
553.146	37587.2	37461.6
553.571	37751.4	37718
553.975	37865.8	37779.8
554.399	37938.4	37848.4
554.803	38073.2	37948.2
555.207	38204.4	38071.2
555.632	38317.4	38248.8
556.036	38438	38297.4
556.461	38573.2	38542.4
556.865	38673.4	38588.2
557.268	38818.2	38690.6
557.694	38961	38852
558.098	39009.8	38935.2
558.502	39138	39146
558.927	39342.2	39194.6
559.332	39471	39304.4
559.736	39563.6	39450
560.162	39713.2	39655.6
560.566	39862	39868
560.992	39975.6	39888.4
561.396	40176.8	39931.4
561.801	40175.4	40220.8
562.227	40348.4	40310.2
562.631	40452.8	40434.6
563.036	40623.2	40537.2
563.462	40809.8	40740
563.867	40966.6	40948
564.272	41082.4	40977.8
564.698	41183.2	41132.8
565.103	41453.2	41326.2
565.508	41560.8	41425.6
565.935	41641.6	41550
566.34	41818.2	41693.8
566.745	42006	41771
567.172	42024.8	41902.4
567.577	42249.4	42074.6
567.982	42364	42218.2
568.409	42514.6	42308
568.815	42584.4	42420.8
569.22	42829	42539.4
569.626	42804.6	42696.4
570.053	43005.2	42818.8
570.459	43144.6	42963.8
570.865	43122.6	43084.8
571.292	43373.6	43292.8
571.698	43498.4	43349.8
572.104	43530.8	43576.6
572.531	43714.4	43688.8
572.937	43831	43756.6
573.343	44000.8	43877.8
573.75	44082	43953.6
574.177	44164.6	44083.6
574.583	44250.6	44170.6
574.99	44335.8	44247
575.396	44517.4	44533.4
575.824	44707.4	44580.4
576.231	44800.6	44661.2
576.637	44882.2	44846.4
577.065	45049.4	44896.2
577.472	45171.6	45003.8
577.879	45166.2	44991.6
578.286	45224.4	45144.8
578.714	45514	45297
579.121	45494.2	45317.2
579.528	45550.8	45518.6
579.935	45685.8	45550.6
580.364	45850.4	45670.2
580.771	45767.6	45684.6
581.178	45945.6	45765.4
581.585	46049.2	45941
582.014	46118.4	45962
582.421	46185.6	46067.4
582.829	46256.2	46302
583.236	46329.6	46268.4
583.644	46443	46286.2
584.073	46443.8	46332.4
584.481	46590.4	46523.4
584.889	46544.6	46408.8
585.296	46700	46554.8
585.726	46595.8	46600.8
586.134	46706.4	46672.6
586.542	46805.6	46708.8
586.95	46892.4	46787
587.358	46864.2	46838.8
587.787	46981.8	46799.4
588.196	47016.8	46896
588.604	47034.8	46915.2
589.012	46924.4	46829.4
589.421	47104.8	46973
589.851	47066.2	47036.6
590.259	47140.6	47008.8
590.668	47092.8	47067
591.076	47226.4	47027.4
591.485	47154.4	47076
