#lambda/nm	DC	C1
208.295	550	542.6
208.67	486.6	485
209.045	451.2	454
209.419	445	444.4
209.794	587.8	584.6
210.169	578.6	574.2
210.544	671.8	672.2
210.919	590	586.8
211.295	580	574.4
211.67	585.8	586.2
212.045	582.2	579.4
212.421	579.8	578.8
212.796	611.6	615.2
213.172	574.8	586
213.547	580.2	575.4
213.923	576	579.2
214.299	581.2	579.2
214.675	585.4	582.6
215.051	584.6	586.6
215.427	595.2	591.4
215.803	604.6	595.6
216.179	593	581.2
216.555	578.4	580.8
216.932	584.8	589.4
217.308	583.4	581
217.684	595.2	578.2
218.061	584.2	586.8
218.438	584.4	590
218.814	576.4	582.2
219.191	592.4	587.6
219.568	576.8	577.8
219.945	577	584.4
220.322	586.2	579.2
220.699	584.8	578.8
221.076	589.8	586.8
221.453	587.6	582.6
221.83	572.8	581.2
222.208	579.6	582
222.585	576.6	571.8
222.962	588.2	589.2
223.34	582.6	586.8
223.717	582	575
224.095	581	577.8
224.473	582.8	585
224.851	584	573.2
225.229	568.4	570.6
225.607	590.8	592.2
225.985	575.6	580.6
226.363	577.4	585.8
226.741	578.4	583
227.119	586.2	579.4
227.497	598	589
227.876	575.2	567.2
228.254	584.4	591.8
228.633	589.4	585.4
229.011	582.4	587.6
229.39	586.4	586.8
229.769	585.4	592.4
230.148	590.2	591.4
230.527	594.6	593.6
230.905	589.4	584
231.284	577.8	582.4
231.664	579.8	576.6
232.043	593.2	591.8
232.422	594.6	591.2
232.801	583.4	574.2
233.181	582.4	586.4
233.56	581.4	581
233.94	578.2	580.4
234.319	584.6	569.2
234.699	581.4	578
235.079	616.8	621.6
235.458	615.6	611.6
235.838	605.2	594.4
236.218	583	571
236.598	574.4	579
236.978	576.8	574.6
237.358	574.8	575.2
237.738	586.8	577.4
238.119	590.8	584.4
238.499	571.4	573.4
238.88	581.8	587.6
239.26	594.4	590
239.641	578.6	578.8
240.021	578.6	584.8
240.402	577.6	577.8
240.783	570.6	579.4
241.163	578	581.6
241.544	582.2	595.4
241.925	580.4	582.6
242.306	590	597
242.687	585.8	588.4
243.069	583.8	587
243.45	587.6	587.4
243.831	572.2	583.8
244.212	578.8	582
244.594	607	619
244.975	590	586.4
245.357	587.2	590.4
245.739	573.8	580.8
246.12	583.6	577.2
246.502	594.4	594.2
246.884	585.2	581.6
247.266	577.4	572
247.648	581.8	585.2
248.03	602	596.2
248.412	584.6	580.6
248.794	581.6	583.4
249.176	582.4	579.2
249.559	593.2	588.6
249.941	574.6	571
250.323	575.6	568.4
250.706	578.4	577.6
251.089	579	581.8
251.471	583	590.6
251.854	582.6	588.8
252.237	584.2	579.8
252.62	593.4	592.8
253.002	585.2	579.4
253.385	588.2	584
253.769	592.2	587
254.152	581.8	584
254.535	586.6	593.8
254.918	570.4	576.4
255.301	583.4	586
255.685	572.6	586.4
256.068	574.8	572.4
256.452	594.8	603.4
256.835	590.2	598.6
257.219	580	590.8
257.603	591.8	590.4
257.986	577	576.8
258.37	590	590.2
258.754	575.8	578.4
259.138	586.2	590.4
259.522	579.8	593
259.906	572.2	575.2
260.29	587.6	586.4
260.675	583	582.8
261.059	579.4	584.2
261.443	572.4	571.2
261.828	591.6	586.4
262.212	586.8	593.8
262.597	573.6	569.8
262.981	579.4	588
263.366	589.6	585.8
263.751	585.2	579
264.136	582.2	583.8
264.521	584.2	577.2
264.906	576.4	584.2
265.291	591	589.6
265.676	579	587
266.061	584.8	586.8
266.446	597.4	595
266.831	590.2	579.4
267.217	600.4	597.8
267.602	581.8	588.8
267.987	582.8	590.2
268.373	576.8	572.6
268.759	588.2	593.2
269.144	587	586.4
269.53	579.8	578.8
269.916	577.6	576.8
270.302	580.4	578.8
270.688	588	582.4
271.074	582.6	584.8
271.46	581.4	592.4
271.846	598.2	611.8
272.232	586.8	585.2
272.618	570.8	579.4
273.004	582.8	579.6
273.391	593.8	593.6
273.777	588.8	589
274.164	587.8	587.6
274.55	585.2	597.6
274.937	590.6	580.2
275.324	579.4	582.8
275.71	585.8	582.8
276.097	585.8	598.2
276.484	578.4	578
276.871	589.2	581.2
277.258	589.4	576.6
277.645	570.4	585
278.032	584.4	574.4
278.419	580.2	582
278.807	589.4	577.2
279.194	577	572.6
279.581	576.2	580.6
279.969	591	584
280.356	588.2	589.4
280.744	583.8	581
281.131	606	602
281.519	591.2	589
281.907	581.8	587.6
282.295	577.2	578.6
282.682	593	593.2
283.07	580.8	587
283.458	588.8	593.6
283.846	596.4	589.6
284.235	599.6	592
284.623	590.6	591
285.011	569.8	574.4
285.399	591.4	590.4
285.788	577.4	589.2
286.176	574.8	577
286.565	586.6	589.6
286.953	582.6	579.2
287.342	580	576.8
287.731	578	570.6
288.119	580.2	576.2
288.508	581.8	580.4
288.897	580.4	586.4
289.286	577.8	572.6
289.675	584.6	585.2
290.064	591.2	584.6
290.453	578.2	574.6
290.821	582.6	584.4
291.21	600	588.6
291.599	583.4	580.2
291.989	589.4	581.6
292.378	588	592.4
292.768	601.6	594.4
293.157	583.6	582.6
293.547	589.6	587.8
293.936	585	577.6
294.326	581.6	579.8
294.716	582.6	594.4
295.106	580.6	585.2
295.496	588	586.4
295.886	589	581.2
296.276	575	582.6
296.666	574.8	580.6
297.056	581.6	577.4
297.446	566.4	575.8
297.836	595	596.8
298.227	584.6	581.6
298.617	584.4	581.4
299.008	583.8	597.6
299.398	579	581.2
299.789	584	576.6
300.179	590.8	585.2
300.57	599	593
300.961	581.6	582.8
301.352	583.4	586.2
301.742	586.6	588.4
302.133	590	588.2
302.524	579.6	586.8
302.915	589.6	582.8
303.307	574	580.8
303.698	602	588
304.089	596.4	587.2
304.48	580.4	586.2
304.872	586.2	584.2
305.263	587.6	579.2
305.655	581.6	578.4
306.046	591.4	583
306.438	589.8	583.2
306.829	583.4	579.4
307.221	596.8	595.2
307.613	591.2	579.6
308.005	594.2	589.2
308.397	595.8	591.8
308.789	605.4	593.4
309.181	608.4	595.6
309.573	600.6	594.6
309.965	592.6	599.4
310.357	583	583.2
310.749	580.4	591.8
311.142	580.6	572.4
311.534	576.8	573.8
311.926	590.2	588
312.319	590	585
312.711	572	579
313.104	593	592.6
313.497	579	581.6
313.889	621.6	610.2
314.282	592.2	588.6
314.675	606.8	607.4
315.068	585.4	587
315.461	592.8	591.4
315.854	607.6	604.8
316.247	597.2	589
316.64	584	581.8
317.033	589.6	585.2
317.405	587.6	595.6
317.798	588.4	582
318.192	584.6	582.6
318.585	579	583
318.979	583.6	593
319.372	578.8	590.2
319.766	579.8	578
320.16	588.4	592.8
320.553	596.2	601.4
320.947	600	599.6
321.341	583.4	574.4
321.735	579.6	581
322.129	570	576.4
322.523	605.4	607
322.917	575	578.2
323.311	595.4	587.8
323.705	582.2	589.4
324.099	582.8	586.6
324.494	588.4	593.6
324.888	584.8	591.6
325.282	585.4	583.4
325.677	592	594.2
326.071	583.6	590
326.466	597.6	590
326.861	580.2	587.2
327.255	590	593.4
327.65	594.6	600.8
328.045	596.2	600.4
328.44	580.8	583.8
328.835	584.2	585
329.23	576.2	575
329.625	602.8	606.4
330.02	579	575.6
330.415	601.8	603.4
330.81	584.2	589.8
331.206	585.6	582
331.601	576.2	576
331.996	593.6	596
332.37	598.8	606.6
332.766	575.2	582.6
333.161	602	604.8
333.557	579.2	577.4
333.953	586.8	577.4
334.348	879.4	873
334.744	584	587.8
335.14	582.2	576.4
335.536	585.2	574.6
335.932	591.2	590.2
336.328	583	575.8
336.724	584.6	587.6
337.12	586.4	581.4
337.516	584.6	580
337.913	586.8	575.6
338.309	599	591.8
338.705	577.4	581.2
339.102	592.2	586.4
339.498	580.8	582.2
339.895	596	599
340.291	582.4	573.2
340.688	587	587.2
341.085	574.6	575.6
341.481	577	577.6
341.878	575.6	581
342.275	594.2	601.6
342.672	576	576.4
343.069	577.6	575.4
343.466	569.6	566.8
343.842	587	581.6
344.239	580	578
344.636	581.6	576.2
345.033	577.6	574.8
345.431	571.8	569.8
345.828	581.8	589
346.225	577.8	579.6
346.623	593.4	595.4
347.02	581.8	577
347.418	593.4	592.2
347.816	587.6	601.6
348.213	574.8	570.4
348.611	582	583
349.009	578.4	584
349.407	596	588.6
349.805	570.4	560.6
350.203	561.8	574
350.601	592.2	592.2
350.999	577.8	575.8
351.397	618	619.4
351.795	581	580.6
352.193	594.4	593
352.57	594	592.4
352.969	593	589
353.367	575.2	574.8
353.766	580	574.2
354.164	577.6	580.6
354.563	589.6	593.6
354.961	581.4	587
355.36	578.2	572.4
355.759	579.8	573
356.158	567.8	574.4
356.557	571.4	565.4
356.956	578.2	575.4
357.355	564	568
357.754	580	577.8
358.153	578.8	579.6
358.552	599.4	601
358.951	578	573.4
359.35	593.8	593.4
359.75	577	578.2
360.149	569.2	567.4
360.527	565.8	569.6
360.926	572.4	569.6
361.326	590.2	584.2
361.726	581.4	585.6
362.125	577.6	579.4
362.525	585.4	580.8
362.925	577	569.8
363.325	580.4	571.2
363.724	573.2	571.8
364.124	580	567.8
364.524	577	573.6
364.924	575.6	575.2
365.324	581.2	584.6
365.725	571	562.4
366.125	575.6	583.2
366.525	575.6	578.4
366.904	564.4	576
367.304	564.2	564
367.705	585.4	591.2
368.105	574.4	584.6
368.506	573.2	587.2
368.906	577.4	572
369.307	572	585.4
369.708	580.2	576
370.108	572.8	568.8
370.509	584	580
370.91	571	568.4
371.311	571.2	575.4
371.712	583.6	580.2
372.113	579.4	573.4
372.514	560.8	567.8
372.894	570.8	573
373.295	569.2	574.2
373.696	586.8	580.8
374.097	583.4	589.2
374.499	603.8	605.2
374.9	584.6	583.2
375.301	566.6	572.8
375.703	573.2	577.6
376.105	571	573.6
376.506	581	579.8
376.908	572	579
377.309	579.2	577.6
377.711	580.2	578.6
378.113	582.4	575.6
378.493	580.2	581.4
378.895	574.4	570.2
379.297	581.2	590.2
379.699	566.8	563.6
380.102	579	580.6
380.504	580.8	572.6
380.906	568	583.2
381.308	597.4	592.4
381.71	572.2	577.6
382.113	583.6	589.2
382.515	574.2	585
382.918	579.4	582
383.299	577	578.2
383.701	586.2	581.8
384.104	575.2	574
384.507	560	559.6
384.909	571.2	570.6
385.312	563.6	569.6
385.715	567	575.6
386.118	569.2	569.6
386.521	565.6	569.2
386.924	590.2	579.4
387.327	569.8	570.6
387.709	560.6	576.2
388.112	567.6	560
388.515	574.2	577.6
388.918	583.2	582.8
389.322	581.2	578
389.725	574.8	576.2
390.129	595.4	595
390.532	580	583
390.936	570	571.6
391.339	568.4	573.6
391.743	580	579.2
392.125	570.8	569.6
392.529	586.6	586.4
392.933	588	583.6
393.337	578.2	582.6
393.74	574.6	574.2
394.144	580	578.8
394.548	571.4	573.8
394.953	572.8	574
395.357	583.4	582.6
395.761	573.6	579.6
396.144	570.8	575
396.548	574.6	577.6
396.952	579	572
397.357	574.2	579.4
397.761	574.6	577
398.166	578.4	573.2
398.57	583.8	560.4
398.975	559.8	560.4
399.379	572.4	574
399.763	617.4	621.6
400.168	570.4	574.6
400.572	580.2	579
400.977	567.8	567.8
401.382	592	595.6
401.787	585.8	583.6
402.192	590.4	591.4
402.597	590.6	585.8
403.002	563.6	562.6
403.386	579.6	586.2
403.791	588.8	586
404.197	572	571.6
404.602	581	579.6
405.007	576.4	577.6
405.413	576.8	572.4
405.818	573.4	573.2
406.224	570	568.4
406.608	573	582.4
407.014	566	566.6
407.42	582.6	578.8
407.825	570.8	564
408.231	587.4	579
408.637	579.4	575.2
409.043	587.4	582.8
409.449	571.2	565.8
409.834	572.6	573.6
410.24	575	573.2
410.646	580.2	579
411.052	583.8	585.2
411.458	577.8	576.6
411.865	584.8	583
412.271	580.4	587.4
412.677	576.2	578.8
413.062	586.8	578
413.469	562.4	571.2
413.875	604.6	590.4
414.282	578	585.4
414.689	577.4	579.2
415.095	578	577
415.502	568.2	566.2
415.888	579.4	575.2
416.294	569.4	568.2
416.701	616.4	607.8
417.108	574.8	570.2
417.515	584.6	581.8
417.923	576.2	572.6
418.33	592.2	587.8
418.715	581.6	585
419.123	572.6	577.2
419.53	573.2	570.2
419.937	574.6	576.6
420.345	583.6	586.8
420.752	571.6	571.6
421.16	583.4	584.8
421.546	580.2	580.4
421.953	576.8	588
422.361	568.4	573.2
422.769	580	573.2
423.177	575.4	578.8
423.585	596.8	605
423.992	599.6	587.4
424.379	593	591
424.787	583.2	588.4
425.195	597.6	589.6
425.603	577.2	572
426.011	587.4	592.8
426.419	594.6	590.6
426.806	576.8	582.8
427.214	579.8	587.8
427.623	584.4	591.4
428.031	598.6	598
428.44	584.4	588.2
428.848	585.6	599
429.235	595.6	606.2
429.644	587.2	592.4
430.053	580	602.2
430.461	594.2	614.6
430.87	601.4	620.4
431.279	592.8	613
431.666	580.2	601.2
432.075	577.6	622
432.484	588.2	616.8
432.893	575.8	618.4
433.302	599.8	647.2
433.711	615.8	675.2
434.099	588.8	649.6
434.508	579.6	653
434.918	574	654.2
435.327	599	671.4
435.737	590	679
436.125	585	684.8
436.534	592.6	701
436.944	585.4	705.6
437.353	586.2	713.2
437.763	599.2	730.4
438.173	579.8	714.6
438.561	592.2	726.2
438.971	574.2	719.8
439.381	586	726.4
439.791	587.8	754.8
440.201	575.8	750.6
440.589	590.2	763.4
440.999	594.8	768.6
441.409	595	771
441.819	574.2	765.4
442.23	604.4	795
442.619	592.8	800.6
443.029	594.6	808.2
443.439	595.6	810.6
443.85	599.8	815.8
444.26	604.4	822.6
444.649	606	827.8
445.06	605.2	827.4
445.471	603.4	825.2
445.881	604.4	831.6
446.292	614	856.4
446.682	618.2	870
447.092	598.6	839
447.503	640.6	890.8
447.914	603.8	856.2
448.325	613.6	855
448.715	608.2	865.4
449.126	609.2	854.8
449.537	610.6	849.8
449.948	618.2	852
450.338	624.2	860
450.75	624.2	871
451.161	616.2	863.4
451.572	626.8	877.6
451.984	610.2	861
452.374	603.4	858.8
452.786	616.6	869.6
453.197	621	876.6
453.609	632.6	883.8
453.999	616.4	860
454.411	618.2	860.4
454.823	631.4	886
455.235	624.8	875.4
455.647	614.2	877.8
456.037	615.4	884.8
456.449	602.2	868.8
456.862	618.4	891
457.274	620.6	889.6
457.665	604.6	878
458.077	619.2	890.6
458.489	637	900.4
458.902	613.6	873.8
459.293	621.8	873.8
459.705	611.8	888.6
460.118	601.2	883.4
460.53	606.6	885.4
460.921	605	880.4
461.334	608	880.8
461.747	596.2	877.4
462.16	613.6	884.2
462.551	610.6	890
462.964	602	890.2
463.377	586.8	873
463.79	595.8	873.2
464.182	601.6	885.2
464.595	583.8	868.6
465.008	593	877.4
465.421	595.6	877.2
465.813	593.6	881.6
466.226	594.6	877.2
466.64	583	873.2
467.053	631.2	911.8
467.445	591.6	888.6
467.859	608.4	893.2
468.272	587.4	894
468.686	598.8	891
469.078	592.6	872.2
469.492	570.4	868.2
469.906	587.8	886.2
470.298	584.4	882.2
470.712	582.8	868.2
471.126	613	902.8
471.54	573.4	867.6
471.933	580.2	868.4
472.347	579.6	870.6
472.761	582.4	873.8
473.175	580.4	868.2
473.568	583.8	876.6
473.982	582.8	867.6
474.397	587.2	877.4
474.79	587.4	866.6
475.204	596	873.4
475.619	584.8	874.8
476.033	584	855.6
476.426	579.8	864.6
476.841	579	864.4
477.256	611	875
477.649	578.8	847.8
478.064	580	841.4
478.479	571.8	857.2
478.872	572.2	849
479.287	566.2	831.4
479.702	586.4	850.8
480.118	584	846.8
480.511	579.2	839.6
480.927	582	845.6
481.342	571.6	851.2
481.736	586.2	857.2
482.151	575.2	835.4
482.566	586.8	845.6
482.96	571.4	837
483.376	587.2	851.8
483.792	576	829
484.186	571.6	827.8
484.602	571.6	838.4
485.017	574.2	838.8
485.412	584.2	826.2
485.827	586.2	840
486.243	573	829.6
486.638	602	851
487.054	589	831
487.47	598.4	835.8
487.865	577.2	817.2
488.281	572.6	820.2
488.697	576.4	825.6
489.092	576.8	814
489.508	571.8	811.8
489.925	584.2	825
490.32	573.2	805.2
490.736	591.4	816
491.153	577	801.8
491.548	572.6	802
491.964	575.2	824.8
492.381	566.2	795.2
492.776	580.4	799.4
493.193	578.8	801.8
493.61	578.4	808.8
494.006	578	798.6
494.422	581.2	803.8
494.84	571.2	785.6
495.235	579.2	796.6
495.652	576.4	788.4
496.069	573.2	791.4
496.465	565.4	785.8
496.883	574	784.8
497.3	603	806
497.696	568.4	774.8
498.113	588.6	778.8
498.509	579.2	761.2
498.927	575.8	768.8
499.344	572.8	778.4
499.741	578.4	763.6
500.158	592.8	786.4
500.576	588	780.4
500.973	581.8	772.8
501.39	572.6	756.6
501.787	570.4	762.4
502.205	581.8	764.2
502.623	583.4	751.2
503.02	571.2	739
503.438	579.6	758.6
503.856	581.6	758.4
504.253	586.4	755.8
504.671	579.8	757
505.068	577.4	754.6
505.486	581.4	743.6
505.905	601.2	760.2
506.302	581.2	745.6
506.72	587.2	751.2
507.118	575.8	737.2
507.536	580.8	738.4
507.955	576.4	732.6
508.352	588.2	739.2
508.771	583.8	733.2
509.169	578	729.8
509.587	571.4	725
510.006	583.8	731.4
510.404	576.6	727
510.823	583	721
511.221	578.4	727.8
511.64	588.8	730.8
512.038	597.4	732.4
512.457	591.6	730.6
512.877	582.8	714.6
513.275	583.6	715.4
513.694	587	712
514.092	586	713.4
514.512	589.4	726.8
514.91	588.8	725
515.33	586.8	721
515.749	588.6	716.8
516.148	595.2	716.6
516.568	591.6	717.4
516.966	592	715.2
517.386	587.8	712.2
517.785	590.2	712.8
518.205	585.4	696.4
518.603	581.4	695.4
519.024	585.4	694.4
519.444	594	698.6
519.843	592.6	711.6
520.263	599.6	713.4
520.662	600	705.2
521.082	595.6	699.4
521.481	597	688.2
521.902	591.2	690.2
522.301	594.8	685.6
522.722	598.2	694.4
523.121	606	691.8
523.542	596	690.4
523.963	600.8	695.8
524.362	591.4	681.8
524.783	599.2	678.8
525.183	601.8	686.8
525.604	608	685.8
526.003	594.8	669.6
526.425	594.4	679.8
526.824	605	679.6
527.246	602.2	686.6
527.646	608	683.6
528.067	602.6	674
528.467	609.4	681.4
528.888	601	684.4
529.289	597	665.6
529.71	606	678.2
530.11	595	668.4
530.532	601.4	664.6
530.932	595.2	667
531.354	596.8	669.2
531.755	631.8	695.6
532.176	605	669.6
532.577	605.4	661.4
532.999	605.8	665.2
533.4	602.2	663.2
533.822	610.2	670.4
534.223	619.4	659.6
534.645	607	657.4
535.046	604	660.6
535.468	609.6	648.2
535.869	612.4	677.4
536.292	607.8	647.8
536.693	631.2	678.4
537.115	600.8	648.2
537.516	604.8	645.8
537.939	600.6	643.4
538.34	617.4	673.4
538.742	615	660.6
539.165	604	651.6
539.566	609	643.8
539.989	597.6	637
540.391	595.4	643.8
540.814	605.6	649
541.216	610.2	642.8
541.639	608.2	649
542.041	614.6	657.8
542.464	607	645.8
542.866	599.6	648.6
543.268	596.4	642.8
543.691	610.8	651.4
544.093	612.6	644.6
544.517	614.8	658.2
544.919	594	633.4
545.343	626.8	660
545.745	602.4	638.4
546.147	604.8	639.4
546.571	598.6	638.6
546.974	601.8	638
547.398	604	645.4
547.8	611.2	654.2
548.224	596	636.6
548.627	591	629.2
549.03	608	641
549.454	590	626.2
549.857	592.2	628.2
550.281	595	629.8
550.684	596.8	630.4
551.087	611.2	634
551.512	601.8	634
551.915	596.2	633
552.34	596.4	636.6
552.743	595.2	626.8
553.146	595.8	627.4
553.571	592.4	624.8
553.975	611.4	646.4
554.399	587.2	624.6
554.803	635.2	659.2
555.207	588	617.4
555.632	580.6	623
556.036	600.8	634.8
556.461	583.8	611.6
556.865	594.2	620.2
557.268	587.2	613.4
557.694	586.6	617.6
558.098	593.6	628.8
558.502	593.6	625.6
558.927	586	614.8
559.332	591.4	623
559.736	593.8	612.2
560.162	595	622.2
560.566	583.8	612
560.992	592.4	619.2
561.396	582.2	610.6
561.801	590.4	613.8
562.227	581	613.6
562.631	582	611
563.036	583.8	610.2
563.462	594.8	621
563.867	582.6	614.6
564.272	577	594.8
564.698	590.4	611.4
565.103	566.8	601.4
565.508	593.8	623.4
565.935	576.8	609.4
566.34	586.8	605
566.745	585.8	619.6
567.172	582.4	607.4
567.577	595.8	617.8
567.982	595.2	620.2
568.409	586.6	614.4
568.815	577.8	600
569.22	583.6	596.2
569.626	585.6	612
570.053	576	598.2
570.459	589.2	608.4
570.865	586.6	611.6
571.292	588.2	605.8
571.698	584.8	603.2
572.104	570.6	594.6
572.531	578.2	599.4
572.937	581.8	609.2
573.343	577.2	602.2
573.75	577	590.6
574.177	574.6	607.6
574.583	588.2	608.4
574.99	579.6	598.6
575.396	577.6	601.6
575.824	582.2	591.8
576.231	585	604.4
576.637	570.4	592.8
577.065	594.2	615.6
577.472	568	589.2
577.879	577.6	598.4
578.286	589.6	602.6
578.714	573	592.8
579.121	580	594.8
579.528	581.4	594.4
579.935	589.8	604.4
580.364	578	587.4
580.771	560.2	583.6
581.178	568.8	591.4
581.585	577.2	593.4
582.014	580.4	594
582.421	578.2	587.8
582.829	567.4	586.2
583.236	582.8	596.4
583.644	579	583
584.073	577.4	578.6
584.481	579.2	589.6
584.889	567	584.6
585.296	575.4	595.2
585.726	580.6	589.4
586.134	578.8	577.2
586.542	574.6	587.6
586.95	589.6	602.4
587.358	566.8	587.6
587.787	578	588.4
588.196	573.4	580
588.604	572.2	591.4
589.012	574.4	596.2
589.421	571	582.2
589.851	573.2	578.6
590.259	589.4	582.8
590.668	581.4	579.8
591.076	606.8	616
591.485	565.6	578
591.894	574	582.8
592.324	590.6	591.4
592.733	582	593.6
593.142	563.4	572.4
593.551	580	582.4
593.96	575.2	614.8
594.369	573.8	574
594.8	575.2	569.8
595.209	578.2	585.8
595.618	566.8	569.4
596.028	578.6	577.8
596.437	576	575.2
596.847	584.8	584.8
597.256	586	581.8
597.687	579	583.6
598.097	580.2	580
598.507	569.6	570
598.917	579.2	580.8
599.327	583.2	590.6
599.736	584.8	579.2
600.146	591	592.4
600.556	578.2	578.6
600.988	589	588.8
601.398	575.2	572.4
601.808	588.6	582.6
602.219	570.2	568.6
602.629	575.8	576.8
603.039	584.4	577.4
603.45	595.4	598.2
603.86	581	582.2
604.271	592.4	587
604.703	579.2	572.2
605.114	585.4	572.2
605.525	584.6	577.4
605.935	593	582.6
606.346	596	593.2
606.757	590.6	581.4
607.168	592.4	580.8
607.579	577.8	572.4
607.99	596.2	580.8
608.402	587.6	567
608.813	589.4	584
609.224	588	578
609.636	584.8	570.6
610.047	591.4	570.8
610.48	598.4	575.4
610.892	593.2	588.8
611.303	598	586
611.715	602	587.2
612.127	595.4	575.2
612.539	595	574.4
612.95	602.4	582.6
613.362	603.2	579.4
613.774	606.6	573.8
614.186	605.8	573.8
614.599	604.4	581.8
615.011	621	588.8
615.423	598.2	577.2
615.835	596.8	576.2
616.248	586	582
616.66	603.4	581.6
617.073	594.2	576.4
617.485	589.4	569.8
617.898	601.2	582
618.311	597.8	580.8
618.723	589.8	585.6
619.136	617.8	602.2
619.549	597	592.6
619.962	615.4	599.6
620.375	589.4	574.6
620.788	592.8	584
621.201	582.8	573.8
621.614	591.6	591.8
622.028	594	573
622.441	585.6	578.6
622.854	603.6	598.4
623.268	590.6	567.6
623.681	595.2	586.4
624.095	582.8	583.4
624.509	594.6	594.2
624.922	592.4	587.2
625.336	579.2	569.2
625.728	593.8	581.6
